Bruker Nano GmbH Berlin, Germany
Esprit 2.x

Date: 8/21/2023 2:57:09 PM
Real time: 56326
Life time: 56326
Pulse density: 1195

Primary energy: 10
Beam current: -1
Take off angle: 35
Tilt angle: 0
Azimut angle: 45

Detector type: Custom type
Window type: slew AP3.3
Detector thickness: 0.45
Si dead layer:0

Calibration, lin.: 4.998
Calibration, abs.: -477.257
Mn FWHM: 124.4
Fano factor: 0.109
Channels: 2132

Energy Counts
-0.4773    0
-0.4723    0
-0.4673    0
-0.4623    0
-0.4573    0
-0.4523    0
-0.4473    0
-0.4423    0
-0.4373    0
-0.4323    0
-0.4273    0
-0.4223    0
-0.4173    0
-0.4123    0
-0.4073    0
-0.4023    0
-0.3973    0
-0.3923    0
-0.3873    0
-0.3823    0
-0.3773    0
-0.3723    0
-0.3673    0
-0.3623    0
-0.3573    0
-0.3523    0
-0.3473    0
-0.3423    0
-0.3373    0
-0.3323    0
-0.3273    0
-0.3223    0
-0.3173    0
-0.3123    0
-0.3073    0
-0.3023    0
-0.2973    0
-0.2923    0
-0.2873    0
-0.2823    0
-0.2773    0
-0.2723    0
-0.2673    0
-0.2623    0
-0.2573    0
-0.2523    0
-0.2473    0
-0.2423    0
-0.2373    0
-0.2323    0
-0.2273    0
-0.2223    0
-0.2173    0
-0.2123    0
-0.2073    0
-0.2023    0
-0.1973    0
-0.1923    0
-0.1873    0
-0.1823    0
-0.1773    0
-0.1723    0
-0.1673    0
-0.1624    0
-0.1574    0
-0.1524    0
-0.1474    0
-0.1424    0
-0.1374    0
-0.1324    0
-0.1274    0
-0.1224    0
-0.1174    0
-0.1124    0
-0.1074    0
-0.1024    0
-0.0974    0
-0.0924    0
-0.0874    0
-0.0824    0
-0.0774    0
-0.0724    1
-0.0674    3
-0.0624   10
-0.0574   30
-0.0524   86
-0.0474  162
-0.0424  400
-0.0374  786
-0.0324 1340
-0.0274 2234
-0.0224 3343
-0.0174 4789
-0.0124 6277
-0.0074 7258
-0.0024 7856
 0.0026 7983
 0.0076 7261
 0.0126 6268
 0.0176 4795
 0.0226 3460
 0.0276 2121
 0.0326 1429
 0.0376  822
 0.0426  431
 0.0476  189
 0.0526   83
 0.0576   32
 0.0626   17
 0.0676    4
 0.0726    1
 0.0776    1
 0.0826    0
 0.0876    0
 0.0926    0
 0.0976    0
 0.1026    0
 0.1076    0
 0.1126    0
 0.1176    0
 0.1226    1
 0.1276   10
 0.1326   19
 0.1376   18
 0.1426   23
 0.1476   17
 0.1526   17
 0.1576   14
 0.1626   13
 0.1675   11
 0.1725    9
 0.1775    9
 0.1825   11
 0.1875   14
 0.1925   14
 0.1975   13
 0.2025   12
 0.2075   11
 0.2125   11
 0.2175   12
 0.2225   17
 0.2275   22
 0.2325   29
 0.2375   45
 0.2425   55
 0.2475   69
 0.2525   85
 0.2575  106
 0.2625  128
 0.2675  138
 0.2725  145
 0.2775  150
 0.2825  148
 0.2875  128
 0.2925  102
 0.2975   87
 0.3025   65
 0.3075   52
 0.3125   44
 0.3175   32
 0.3225   20
 0.3275   16
 0.3325   10
 0.3375    8
 0.3425   12
 0.3475    9
 0.3525   10
 0.3575   13
 0.3625   14
 0.3675   14
 0.3725   19
 0.3775   17
 0.3825   14
 0.3875   20
 0.3925   18
 0.3975   19
 0.4025   22
 0.4075   23
 0.4125   20
 0.4175   16
 0.4225   18
 0.4275   21
 0.4325   21
 0.4375   19
 0.4425   30
 0.4475   36
 0.4525   43
 0.4575   49
 0.4625   62
 0.4675   95
 0.4725  128
 0.4775  184
 0.4825  214
 0.4875  306
 0.4925  391
 0.4975  501
 0.5024  635
 0.5074  756
 0.5124  810
 0.5174  908
 0.5224  888
 0.5274  921
 0.5324  910
 0.5374  802
 0.5424  731
 0.5474  621
 0.5524  482
 0.5574  354
 0.5624  273
 0.5674  188
 0.5724  136
 0.5774   96
 0.5824   60
 0.5874   37
 0.5924   21
 0.5974   22
 0.6024   15
 0.6074   11
 0.6124    9
 0.6174   17
 0.6224   12
 0.6274    7
 0.6324   14
 0.6374   14
 0.6424    7
 0.6474   11
 0.6524   14
 0.6574    9
 0.6624   16
 0.6674   20
 0.6724   22
 0.6774   25
 0.6824   18
 0.6874   26
 0.6924   23
 0.6974   23
 0.7024   21
 0.7074   32
 0.7124   26
 0.7174   24
 0.7224   34
 0.7274   17
 0.7324   20
 0.7374   18
 0.7424   22
 0.7474   18
 0.7524    6
 0.7574   22
 0.7624   21
 0.7674   15
 0.7724    7
 0.7774   14
 0.7824    8
 0.7874   13
 0.7924    8
 0.7974    7
 0.8024   10
 0.8074   12
 0.8124    6
 0.8174   12
 0.8224   11
 0.8274   10
 0.8324   17
 0.8373   13
 0.8423    8
 0.8473   12
 0.8523   12
 0.8573   10
 0.8623   16
 0.8673   12
 0.8723   15
 0.8773   17
 0.8823   12
 0.8873   15
 0.8923   14
 0.8973   15
 0.9023   13
 0.9073   14
 0.9123   13
 0.9173   16
 0.9223    8
 0.9273   14
 0.9323   18
 0.9373   11
 0.9423   14
 0.9473   14
 0.9523   18
 0.9573   15
 0.9623    9
 0.9673   19
 0.9723   23
 0.9773   14
 0.9823   18
 0.9873   21
 0.9923   26
 0.9973   28
 1.0023   33
 1.0073   38
 1.0123   47
 1.0173   35
 1.0223   63
 1.0273   53
 1.0323   64
 1.0373   61
 1.0423   83
 1.0473   52
 1.0523   74
 1.0573   79
 1.0623   69
 1.0673   64
 1.0723   47
 1.0773   42
 1.0823   29
 1.0873   29
 1.0923   31
 1.0973   30
 1.1023   27
 1.1073   18
 1.1123   13
 1.1173   23
 1.1223   23
 1.1273   20
 1.1323   20
 1.1373   18
 1.1423    9
 1.1473   18
 1.1523   20
 1.1573   15
 1.1623   19
 1.1672   17
 1.1722   17
 1.1772   15
 1.1822   17
 1.1872   20
 1.1922   29
 1.1972   23
 1.2022   27
 1.2072   33
 1.2122   25
 1.2172   30
 1.2222   37
 1.2272   44
 1.2322   36
 1.2372   43
 1.2422   47
 1.2472   39
 1.2522   58
 1.2572   62
 1.2622   57
 1.2672   46
 1.2722   47
 1.2772   54
 1.2822   53
 1.2872   43
 1.2922   36
 1.2972   41
 1.3022   34
 1.3072   36
 1.3122   31
 1.3172   21
 1.3222   28
 1.3272   28
 1.3322   22
 1.3372   17
 1.3422   23
 1.3472   33
 1.3522   32
 1.3572   24
 1.3622   23
 1.3672   16
 1.3722   22
 1.3772   24
 1.3822   24
 1.3872   20
 1.3922   28
 1.3972   34
 1.4022   26
 1.4072   34
 1.4122   35
 1.4172   40
 1.4222   39
 1.4272   52
 1.4322   78
 1.4372   90
 1.4422  114
 1.4472  127
 1.4522  149
 1.4572  187
 1.4622  219
 1.4672  242
 1.4722  279
 1.4772  295
 1.4822  309
 1.4872  299
 1.4922  315
 1.4972  322
 1.5021  313
 1.5071  271
 1.5121  245
 1.5171  253
 1.5221  216
 1.5271  185
 1.5321  153
 1.5371  116
 1.5421  103
 1.5471   93
 1.5521   80
 1.5571   64
 1.5621   51
 1.5671   44
 1.5721   32
 1.5771   34
 1.5821   31
 1.5871   32
 1.5921   37
 1.5971   29
 1.6021   29
 1.6071   31
 1.6121   24
 1.6171   25
 1.6221   21
 1.6271   25
 1.6321   31
 1.6371   35
 1.6421   25
 1.6471   26
 1.6521   42
 1.6571   64
 1.6621   75
 1.6671   99
 1.6721  130
 1.6771  172
 1.6821  237
 1.6871  298
 1.6921  418
 1.6971  472
 1.7021  528
 1.7071  663
 1.7121  770
 1.7171  886
 1.7221 1002
 1.7271 1079
 1.7321 1151
 1.7371 1175
 1.7421 1153
 1.7471 1179
 1.7521 1186
 1.7571 1115
 1.7621 1049
 1.7671  917
 1.7721  807
 1.7771  725
 1.7821  615
 1.7871  524
 1.7921  437
 1.7971  358
 1.8021  297
 1.8071  242
 1.8121  178
 1.8171  158
 1.8221  137
 1.8271  112
 1.8321   86
  1.837   76
  1.842   82
  1.847   81
  1.852   67
  1.857   54
  1.862   47
  1.867   48
  1.872   46
  1.877   37
  1.882   36
  1.887   32
  1.892   25
  1.897   22
  1.902   20
  1.907   15
  1.912   13
  1.917   14
  1.922   14
  1.927   12
  1.932   11
  1.937   15
  1.942   12
  1.947   12
  1.952   14
  1.957   10
  1.962   11
  1.967   11
  1.972   11
  1.977   13
  1.982   15
  1.987   14
  1.992   11
  1.997   13
  2.002   13
  2.007   14
  2.012   15
  2.017   14
  2.022   16
  2.027   20
  2.032   23
  2.037   19
  2.042   19
  2.047   17
  2.052   14
  2.057   19
  2.062   14
  2.067   11
  2.072   18
  2.077   18
  2.082   13
  2.087   13
  2.092   13
  2.097   13
  2.102   13
  2.107   16
  2.112   15
  2.117   11
  2.122   15
  2.127   14
  2.132   12
  2.137   11
  2.142   13
  2.147   16
  2.152   18
  2.157   17
  2.162   13
 2.1669   12
 2.1719   14
 2.1769   12
 2.1819   10
 2.1869    8
 2.1919    7
 2.1969   11
 2.2019   15
 2.2069   17
 2.2119   16
 2.2169   12
 2.2219   15
 2.2269   16
 2.2319   19
 2.2369   23
 2.2419   19
 2.2469   19
 2.2519   17
 2.2569   14
 2.2619   18
 2.2669   16
 2.2719   15
 2.2769   13
 2.2819   13
 2.2869   12
 2.2919   13
 2.2969   20
 2.3019   19
 2.3069   21
 2.3119   22
 2.3169   24
 2.3219   20
 2.3269   14
 2.3319   16
 2.3369   21
 2.3419   17
 2.3469   12
 2.3519   15
 2.3569   17
 2.3619   20
 2.3669   17
 2.3719   11
 2.3769   12
 2.3819   17
 2.3869   18
 2.3919   20
 2.3969   19
 2.4019   19
 2.4069   21
 2.4119   15
 2.4169   18
 2.4219   17
 2.4269   13
 2.4319   16
 2.4369   18
 2.4419   22
 2.4469   17
 2.4519   17
 2.4569   21
 2.4619   15
 2.4669   17
 2.4719   19
 2.4769   17
 2.4819   21
 2.4869   23
 2.4919   19
 2.4969   20
 2.5018   19
 2.5068   18
 2.5118   24
 2.5168   18
 2.5218   18
 2.5268   18
 2.5318   20
 2.5368   17
 2.5418   22
 2.5468   26
 2.5518   19
 2.5568   24
 2.5618   21
 2.5668   26
 2.5718   20
 2.5768   29
 2.5818   33
 2.5868   33
 2.5918   35
 2.5968   31
 2.6018   24
 2.6068   31
 2.6118   32
 2.6168   29
 2.6218   40
 2.6268   31
 2.6318   33
 2.6368   28
 2.6418   33
 2.6468   32
 2.6518   32
 2.6568   22
 2.6618   25
 2.6668   40
 2.6718   27
 2.6768   27
 2.6818   20
 2.6868   24
 2.6918   23
 2.6968   29
 2.7018   18
 2.7068   15
 2.7118   18
 2.7168   23
 2.7218   18
 2.7268   22
 2.7318   20
 2.7368   16
 2.7418   12
 2.7468   17
 2.7518   11
 2.7568   18
 2.7618   20
 2.7668   20
 2.7718   30
 2.7768   23
 2.7818   21
 2.7868   21
 2.7918   21
 2.7968   19
 2.8018   20
 2.8068   14
 2.8118   20
 2.8168   22
 2.8218   22
 2.8268   15
 2.8318   17
 2.8367   26
 2.8417   21
 2.8467   18
 2.8517   24
 2.8567   17
 2.8617   15
 2.8667   16
 2.8717   20
 2.8767   21
 2.8817   22
 2.8867   23
 2.8917   24
 2.8967   25
 2.9017   14
 2.9067   23
 2.9117   26
 2.9167   26
 2.9217   25
 2.9267   24
 2.9317   12
 2.9367   26
 2.9417   23
 2.9467   20
 2.9517   19
 2.9567   19
 2.9617   29
 2.9667   13
 2.9717   20
 2.9767   18
 2.9817   24
 2.9867   21
 2.9917   23
 2.9967   12
 3.0017   21
 3.0067   25
 3.0117   17
 3.0167   18
 3.0217   21
 3.0267   24
 3.0317   11
 3.0367   18
 3.0417   21
 3.0467   25
 3.0517   26
 3.0567   27
 3.0617   23
 3.0667   24
 3.0717   16
 3.0767   16
 3.0817   18
 3.0867   19
 3.0917   22
 3.0967   17
 3.1017   22
 3.1067   24
 3.1117   19
 3.1167   18
 3.1217   21
 3.1267   37
 3.1317   22
 3.1367   25
 3.1417   27
 3.1467   25
 3.1517   14
 3.1567   19
 3.1617   31
 3.1666   18
 3.1716   16
 3.1766   24
 3.1816   25
 3.1866   22
 3.1916   19
 3.1966   25
 3.2016   24
 3.2066   26
 3.2116   24
 3.2166   33
 3.2216   25
 3.2266   32
 3.2316   43
 3.2366   47
 3.2416   43
 3.2466   46
 3.2516   57
 3.2566   64
 3.2616   58
 3.2666   70
 3.2716   75
 3.2766   76
 3.2816   73
 3.2866   84
 3.2916  107
 3.2966   96
 3.3016   95
 3.3066   93
 3.3116  105
 3.3166  105
 3.3216   99
 3.3266  105
 3.3316  109
 3.3366   99
 3.3416   93
 3.3466   70
 3.3516   72
 3.3566   74
 3.3616   76
 3.3666   61
 3.3716   50
 3.3766   47
 3.3816   53
 3.3866   47
 3.3916   34
 3.3966   32
 3.4016   25
 3.4066   20
 3.4116   21
 3.4166   25
 3.4216   20
 3.4266   22
 3.4316   24
 3.4366   19
 3.4416   22
 3.4466   19
 3.4516   21
 3.4566   26
 3.4616   29
 3.4666   22
 3.4716   16
 3.4766   26
 3.4816   16
 3.4866   20
 3.4916   20
 3.4966   22
 3.5015   17
 3.5065   27
 3.5115   27
 3.5165   34
 3.5215   24
 3.5265   28
 3.5315   28
 3.5365   36
 3.5415   23
 3.5465   26
 3.5515   31
 3.5565   28
 3.5615   37
 3.5665   39
 3.5715   25
 3.5765   21
 3.5815   38
 3.5865   29
 3.5915   34
 3.5965   28
 3.6015   37
 3.6065   29
 3.6115   32
 3.6165   23
 3.6215   31
 3.6265   27
 3.6315   39
 3.6365   34
 3.6415   33
 3.6465   24
 3.6515   46
 3.6565   40
 3.6615   32
 3.6665   43
 3.6715   38
 3.6765   35
 3.6815   40
 3.6865   29
 3.6915   38
 3.6965   39
 3.7015   39
 3.7065   39
 3.7115   28
 3.7165   37
 3.7215   38
 3.7265   35
 3.7315   24
 3.7365   22
 3.7415   29
 3.7465   28
 3.7515   26
 3.7565   14
 3.7615   16
 3.7665   23
 3.7715   18
 3.7765   27
 3.7815   22
 3.7865   24
 3.7915   34
 3.7965   19
 3.8015   20
 3.8065   24
 3.8115   15
 3.8165   35
 3.8215   24
 3.8265   26
 3.8315   19
 3.8364   16
 3.8414   24
 3.8464   23
 3.8514   20
 3.8564   27
 3.8614   13
 3.8664   17
 3.8714   23
 3.8764   19
 3.8814   25
 3.8864   20
 3.8914   26
 3.8964   21
 3.9014   24
 3.9064   28
 3.9114   26
 3.9164   29
 3.9214   20
 3.9264   19
 3.9314   16
 3.9364   28
 3.9414   21
 3.9464   26
 3.9514   23
 3.9564   13
 3.9614   19
 3.9664   20
 3.9714   29
 3.9764   20
 3.9814   31
 3.9864   28
 3.9914   16
 3.9964   27
 4.0014   25
 4.0064   20
 4.0114   23
 4.0164   19
 4.0214   22
 4.0264   18
 4.0314   12
 4.0364   16
 4.0414   18
 4.0464   25
 4.0514   24
 4.0564   21
 4.0614   18
 4.0664   16
 4.0714   23
 4.0764   25
 4.0814   23
 4.0864   20
 4.0914   24
 4.0964   15
 4.1014   16
 4.1064   13
 4.1114   20
 4.1164   22
 4.1214   16
 4.1264   18
 4.1314   16
 4.1364   15
 4.1414   16
 4.1464   20
 4.1514   22
 4.1564   23
 4.1614   19
 4.1663   24
 4.1713   19
 4.1763   25
 4.1813   19
 4.1863   19
 4.1913   23
 4.1963   20
 4.2013   22
 4.2063   19
 4.2113   25
 4.2163   19
 4.2213   19
 4.2263   23
 4.2313   19
 4.2363   23
 4.2413   16
 4.2463   14
 4.2513   15
 4.2563   20
 4.2613   19
 4.2663   23
 4.2713   20
 4.2763   20
 4.2813   21
 4.2863   21
 4.2913   19
 4.2963   22
 4.3013   13
 4.3063   17
 4.3113   16
 4.3163   22
 4.3213   25
 4.3263   16
 4.3313   16
 4.3363   16
 4.3413   20
 4.3463   21
 4.3513   12
 4.3563   16
 4.3613   18
 4.3663   22
 4.3713   23
 4.3763   17
 4.3813   23
 4.3863   18
 4.3913   13
 4.3963   18
 4.4013   18
 4.4063   20
 4.4113   18
 4.4163   19
 4.4213   19
 4.4263   17
 4.4313   23
 4.4363   25
 4.4413   25
 4.4463   21
 4.4513   22
 4.4563   23
 4.4613   16
 4.4663   26
 4.4713   35
 4.4763   27
 4.4813   20
 4.4863   18
 4.4913   24
 4.4963   27
 4.5012   26
 4.5062   25
 4.5112   27
 4.5162   23
 4.5212   23
 4.5262   22
 4.5312   20
 4.5362   20
 4.5412   26
 4.5462   18
 4.5512   18
 4.5562   23
 4.5612   22
 4.5662   21
 4.5712   15
 4.5762   16
 4.5812   16
 4.5862   15
 4.5912   20
 4.5962   18
 4.6012   16
 4.6062   18
 4.6112   21
 4.6162   20
 4.6212   14
 4.6262   17
 4.6312   23
 4.6362   19
 4.6412   17
 4.6462   21
 4.6512   21
 4.6562   19
 4.6612   22
 4.6662   20
 4.6712   18
 4.6762   13
 4.6812   11
 4.6862   12
 4.6912   19
 4.6962   28
 4.7012   23
 4.7062   19
 4.7112   14
 4.7162   16
 4.7212   26
 4.7262   19
 4.7312   16
 4.7362   19
 4.7412   23
 4.7462   23
 4.7512   23
 4.7562   23
 4.7612   22
 4.7662   21
 4.7712   19
 4.7762   18
 4.7812   21
 4.7862   21
 4.7912   22
 4.7962   16
 4.8012   10
 4.8062   14
 4.8112   16
 4.8162   18
 4.8212   14
 4.8262   13
 4.8312   14
 4.8361   13
 4.8411   17
 4.8461   15
 4.8511   17
 4.8561   19
 4.8611   17
 4.8661   14
 4.8711   16
 4.8761   22
 4.8811   19
 4.8861   18
 4.8911   19
 4.8961   16
 4.9011   17
 4.9061   16
 4.9111   17
 4.9161   20
 4.9211   16
 4.9261   22
 4.9311   20
 4.9361   16
 4.9411   24
 4.9461   23
 4.9511   17
 4.9561   16
 4.9611   19
 4.9661   21
 4.9711   16
 4.9761   13
 4.9811   18
 4.9861   15
 4.9911   15
 4.9961   17
 5.0011   16
 5.0061   18
 5.0111   21
 5.0161   19
 5.0211   12
 5.0261   11
 5.0311   14
 5.0361   14
 5.0411   16
 5.0461   17
 5.0511   16
 5.0561   18
 5.0611   22
 5.0661   17
 5.0711   13
 5.0761   10
 5.0811   11
 5.0861   14
 5.0911   14
 5.0961   19
 5.1011   23
 5.1061   17
 5.1111   14
 5.1161   16
 5.1211   15
 5.1261   12
 5.1311   13
 5.1361   13
 5.1411   13
 5.1461   13
 5.1511   16
 5.1561   18
 5.1611   19
  5.166   13
  5.171   16
  5.176   16
  5.181   14
  5.186   12
  5.191   15
  5.196   15
  5.201   13
  5.206   14
  5.211   13
  5.216   13
  5.221   13
  5.226   20
  5.231   20
  5.236   15
  5.241   16
  5.246   13
  5.251   13
  5.256   15
  5.261   16
  5.266   17
  5.271   20
  5.276   15
  5.281   14
  5.286   14
  5.291   16
  5.296   17
  5.301   17
  5.306   15
  5.311   14
  5.316   16
  5.321   14
  5.326   17
  5.331   12
  5.336   13
  5.341   20
  5.346   19
  5.351   21
  5.356   18
  5.361   14
  5.366   11
  5.371   12
  5.376   25
  5.381   12
  5.386   16
  5.391   14
  5.396   22
  5.401   20
  5.406   20
  5.411   13
  5.416   16
  5.421   16
  5.426   22
  5.431   13
  5.436   11
  5.441   14
  5.446   16
  5.451   11
  5.456   18
  5.461   19
  5.466   20
  5.471   19
  5.476   19
  5.481    9
  5.486   11
  5.491   13
  5.496   14
 5.5009   11
 5.5059   11
 5.5109   18
 5.5159   10
 5.5209   11
 5.5259   12
 5.5309   12
 5.5359   18
 5.5409   20
 5.5459    7
 5.5509   10
 5.5559   18
 5.5609   14
 5.5659   10
 5.5709   13
 5.5759   15
 5.5809   12
 5.5859   10
 5.5909   19
 5.5959   18
 5.6009   13
 5.6059    6
 5.6109   11
 5.6159    7
 5.6209   10
 5.6259   13
 5.6309   12
 5.6359   14
 5.6409   13
 5.6459   11
 5.6509   14
 5.6559   10
 5.6609   13
 5.6659   14
 5.6709   10
 5.6759   16
 5.6809    9
 5.6859   14
 5.6909   15
 5.6959   12
 5.7009   14
 5.7059   19
 5.7109    8
 5.7159   11
 5.7209   10
 5.7259   14
 5.7309   12
 5.7359   17
 5.7409   10
 5.7459    7
 5.7509   14
 5.7559   15
 5.7609   17
 5.7659    9
 5.7709   11
 5.7759   11
 5.7809   13
 5.7859    9
 5.7909    6
 5.7959   17
 5.8009   10
 5.8059    7
 5.8109   15
 5.8159   18
 5.8209   14
 5.8259   20
 5.8309   13
 5.8358    5
 5.8408   22
 5.8458    9
 5.8508   11
 5.8558   12
 5.8608   17
 5.8658    9
 5.8708   13
 5.8758   10
 5.8808   12
 5.8858    8
 5.8908   14
 5.8958   14
 5.9008   15
 5.9058   15
 5.9108   19
 5.9158   13
 5.9208   19
 5.9258    9
 5.9308   10
 5.9358   13
 5.9408   11
 5.9458   16
 5.9508   18
 5.9558   14
 5.9608   12
 5.9658   11
 5.9708    9
 5.9758   14
 5.9808    9
 5.9858   13
 5.9908   14
 5.9958   15
 6.0008   11
 6.0058   14
 6.0108    8
 6.0158   11
 6.0208    8
 6.0258   12
 6.0308   13
 6.0358   13
 6.0408   11
 6.0458   11
 6.0508   12
 6.0558   10
 6.0608   13
 6.0658   15
 6.0708   10
 6.0758   13
 6.0808    9
 6.0858   17
 6.0908   11
 6.0958   12
 6.1008    9
 6.1058   15
 6.1108    7
 6.1158   18
 6.1208    9
 6.1258   13
 6.1308   11
 6.1358    8
 6.1408   11
 6.1458    2
 6.1508   18
 6.1558    8
 6.1608   15
 6.1657   10
 6.1707   12
 6.1757   10
 6.1807    8
 6.1857   13
 6.1907   12
 6.1957   10
 6.2007   10
 6.2057   12
 6.2107   12
 6.2157    9
 6.2207   16
 6.2257   11
 6.2307   11
 6.2357   17
 6.2407   10
 6.2457    7
 6.2507    8
 6.2557    8
 6.2607    5
 6.2657   13
 6.2707   11
 6.2757    8
 6.2807   17
 6.2857   11
 6.2907   10
 6.2957   23
 6.3007   12
 6.3057   18
 6.3107   22
 6.3157   15
 6.3207   21
 6.3257   27
 6.3307   24
 6.3357   31
 6.3407   28
 6.3457   27
 6.3507   33
 6.3557   30
 6.3607   42
 6.3657   30
 6.3707   37
 6.3757   42
 6.3807   43
 6.3857   35
 6.3907   31
 6.3957   45
 6.4007   43
 6.4057   54
 6.4107   49
 6.4157   34
 6.4207   38
 6.4257   40
 6.4307   34
 6.4357   28
 6.4407   36
 6.4457   29
 6.4507   31
 6.4557   41
 6.4607   24
 6.4657   33
 6.4707   24
 6.4757   22
 6.4807   31
 6.4857   22
 6.4907   23
 6.4957   17
 6.5006   14
 6.5056    9
 6.5106   14
 6.5156   21
 6.5206    8
 6.5256   17
 6.5306    6
 6.5356   12
 6.5406    9
 6.5456   12
 6.5506    8
 6.5556   15
 6.5606   10
 6.5656    8
 6.5706   12
 6.5756   10
 6.5806   10
 6.5856    6
 6.5906   14
 6.5956    8
 6.6006   14
 6.6056   11
 6.6106    8
 6.6156    6
 6.6206   14
 6.6256   15
 6.6306   10
 6.6356   11
 6.6406    6
 6.6456    8
 6.6506   10
 6.6556   12
 6.6606    9
 6.6656    7
 6.6706    6
 6.6756    9
 6.6806    8
 6.6856    8
 6.6906    8
 6.6956   13
 6.7006    7
 6.7056    7
 6.7106    8
 6.7156    6
 6.7206    8
 6.7256    6
 6.7306    6
 6.7356   11
 6.7406    5
 6.7456   14
 6.7506    5
 6.7556    8
 6.7606    5
 6.7656    6
 6.7706    5
 6.7756    7
 6.7806   13
 6.7856   10
 6.7906    7
 6.7956    9
 6.8006   11
 6.8056   12
 6.8106    9
 6.8156    9
 6.8206    7
 6.8256    8
 6.8306    4
 6.8355    5
 6.8405    9
 6.8455    8
 6.8505    2
 6.8555    7
 6.8605    7
 6.8655    5
 6.8705    6
 6.8755    5
 6.8805    8
 6.8855    9
 6.8905    9
 6.8955    4
 6.9005    8
 6.9055    6
 6.9105    6
 6.9155   10
 6.9205   10
 6.9255   11
 6.9305    2
 6.9355    9
 6.9405   13
 6.9455    6
 6.9505    3
 6.9555   10
 6.9605    9
 6.9655    9
 6.9705   10
 6.9755    6
 6.9805   12
 6.9855   14
 6.9905    9
 6.9955   16
 7.0005    7
 7.0055    7
 7.0105   12
 7.0155    6
 7.0205    9
 7.0255    8
 7.0305    9
 7.0355    4
 7.0405   14
 7.0455   14
 7.0505    8
 7.0555   12
 7.0605   11
 7.0655   15
 7.0705    8
 7.0755   10
 7.0805   10
 7.0855   11
 7.0905    8
 7.0955   15
 7.1005    9
 7.1055    8
 7.1105   10
 7.1155   14
 7.1205   10
 7.1255    8
 7.1305    8
 7.1355    5
 7.1405    5
 7.1455    3
 7.1505   10
 7.1555    7
 7.1605    7
 7.1654    6
 7.1704    5
 7.1754   10
 7.1804    7
 7.1854   12
 7.1904    6
 7.1954    2
 7.2004   10
 7.2054    3
 7.2104    8
 7.2154    9
 7.2204    5
 7.2254    6
 7.2304    5
 7.2354    7
 7.2404    7
 7.2454   10
 7.2504    6
 7.2554   11
 7.2604    3
 7.2654    7
 7.2704    9
 7.2754    7
 7.2804    5
 7.2854    6
 7.2904    6
 7.2954    7
 7.3004    5
 7.3054   10
 7.3104    4
 7.3154    4
 7.3204    5
 7.3254    2
 7.3304    9
 7.3354    6
 7.3404    7
 7.3454    6
 7.3504    6
 7.3554    4
 7.3604    4
 7.3654    8
 7.3704    7
 7.3754    9
 7.3804    3
 7.3854   10
 7.3904    5
 7.3954    2
 7.4004    6
 7.4054    3
 7.4104    7
 7.4154    8
 7.4204    5
 7.4254    6
 7.4304    3
 7.4354   11
 7.4404    0
 7.4454    6
 7.4504    6
 7.4554    3
 7.4604    9
 7.4654    4
 7.4704    3
 7.4754    3
 7.4804    4
 7.4854   10
 7.4904    7
 7.4954    5
 7.5003    4
 7.5053    6
 7.5103    5
 7.5153    4
 7.5203    9
 7.5253    6
 7.5303    5
 7.5353    9
 7.5403    3
 7.5453    9
 7.5503    6
 7.5553    4
 7.5603    7
 7.5653    5
 7.5703    8
 7.5753    4
 7.5803    2
 7.5853    4
 7.5903    5
 7.5953   12
 7.6003    7
 7.6053    8
 7.6103    2
 7.6153    3
 7.6203    5
 7.6253    2
 7.6303   11
 7.6353    1
 7.6403    7
 7.6453    5
 7.6503   11
 7.6553    2
 7.6603    4
 7.6653    4
 7.6703    4
 7.6753    4
 7.6803    3
 7.6853    7
 7.6903    2
 7.6953   10
 7.7003    9
 7.7053    4
 7.7103    7
 7.7153    4
 7.7203    6
 7.7253    7
 7.7303    5
 7.7353    4
 7.7403    8
 7.7453    5
 7.7503    6
 7.7553    5
 7.7603    2
 7.7653    3
 7.7703    5
 7.7753    5
 7.7803    3
 7.7853    5
 7.7903    4
 7.7953    2
 7.8003    8
 7.8053    1
 7.8103    7
 7.8153    3
 7.8203    5
 7.8253    4
 7.8303    8
 7.8352    2
 7.8402    0
 7.8452    6
 7.8502    5
 7.8552    6
 7.8602    6
 7.8652    6
 7.8702    4
 7.8752    4
 7.8802    9
 7.8852    4
 7.8902    3
 7.8952    7
 7.9002    5
 7.9052    4
 7.9102    6
 7.9152    2
 7.9202    3
 7.9252    4
 7.9302    6
 7.9352    2
 7.9402    4
 7.9452    1
 7.9502    6
 7.9552    3
 7.9602    4
 7.9652    6
 7.9702    5
 7.9752    6
 7.9802    6
 7.9852    7
 7.9902    5
 7.9952    2
 8.0002    4
 8.0052    6
 8.0102    4
 8.0152    3
 8.0202    3
 8.0252    7
 8.0302    3
 8.0352    8
 8.0402    7
 8.0452    5
 8.0502    9
 8.0552    8
 8.0602    6
 8.0652    4
 8.0702    4
 8.0752    5
 8.0802    4
 8.0852    3
 8.0902    1
 8.0952    4
 8.1002    3
 8.1052    5
 8.1102    5
 8.1152    5
 8.1202    2
 8.1252    4
 8.1302    3
 8.1352    2
 8.1402    5
 8.1452    4
 8.1502    7
 8.1552    3
 8.1602    5
 8.1651    5
 8.1701    6
 8.1751    3
 8.1801    3
 8.1851    2
 8.1901    2
 8.1951    0
 8.2001    3
 8.2051    3
 8.2101    2
 8.2151    4
 8.2201    7
 8.2251    3
 8.2301    3
 8.2351    3
 8.2401    9
 8.2451    4
 8.2501    1
 8.2551    3
 8.2601    5
 8.2651    2
 8.2701    1
 8.2751    2
 8.2801    5
 8.2851    5
 8.2901    1
 8.2951    1
 8.3001    5
 8.3051    3
 8.3101    1
 8.3151    5
 8.3201    3
 8.3251    3
 8.3301    4
 8.3351    0
 8.3401    6
 8.3451    3
 8.3501    9
 8.3551    2
 8.3601    4
 8.3651    3
 8.3701    3
 8.3751    6
 8.3801    6
 8.3851    3
 8.3901    3
 8.3951    4
 8.4001    4
 8.4051    5
 8.4101    2
 8.4151    1
 8.4201    3
 8.4251    2
 8.4301    5
 8.4351    2
 8.4401    3
 8.4451    1
 8.4501    2
 8.4551    3
 8.4601    2
 8.4651    3
 8.4701    2
 8.4751    2
 8.4801    3
 8.4851    1
 8.4901    3
 8.4951    9
    8.5    0
  8.505    2
   8.51    3
  8.515    4
   8.52    1
  8.525    1
   8.53    2
  8.535    2
   8.54    6
  8.545    3
   8.55    5
  8.555    1
   8.56    3
  8.565    0
   8.57    2
  8.575    4
   8.58    3
  8.585    1
   8.59    1
  8.595    3
    8.6    2
  8.605    2
   8.61    4
  8.615    3
   8.62    4
  8.625    4
   8.63    2
  8.635    4
   8.64    4
  8.645    4
   8.65    3
  8.655    1
   8.66    4
  8.665    0
   8.67    5
  8.675    2
   8.68    3
  8.685    3
   8.69    2
  8.695    4
    8.7    2
  8.705    4
   8.71    2
  8.715    3
   8.72    2
  8.725    2
   8.73    2
  8.735    3
   8.74    3
  8.745    2
   8.75    2
  8.755    3
   8.76    1
  8.765    3
   8.77    4
  8.775    1
   8.78    0
  8.785    2
   8.79    4
  8.795    4
    8.8    4
  8.805    2
   8.81    2
  8.815    4
   8.82    3
  8.825    1
   8.83    1
 8.8349    4
 8.8399    1
 8.8449    0
 8.8499    2
 8.8549    3
 8.8599    1
 8.8649    0
 8.8699    0
 8.8749    1
 8.8799    5
 8.8849    1
 8.8899    5
 8.8949    1
 8.8999    2
 8.9049    0
 8.9099    1
 8.9149    0
 8.9199    4
 8.9249    1
 8.9299    2
 8.9349    2
 8.9399    2
 8.9449    2
 8.9499    2
 8.9549    3
 8.9599    3
 8.9649    1
 8.9699    2
 8.9749    2
 8.9799    0
 8.9849    1
 8.9899    3
 8.9949    1
 8.9999    3
 9.0049    2
 9.0099    2
 9.0149    3
 9.0199    1
 9.0249    1
 9.0299    1
 9.0349    2
 9.0399    1
 9.0449    1
 9.0499    0
 9.0549    1
 9.0599    3
 9.0649    2
 9.0699    2
 9.0749    1
 9.0799    0
 9.0849    2
 9.0899    2
 9.0949    1
 9.0999    1
 9.1049    0
 9.1099    4
 9.1149    1
 9.1199    2
 9.1249    0
 9.1299    2
 9.1349    0
 9.1399    1
 9.1449    0
 9.1499    2
 9.1549    3
 9.1599    1
 9.1648    0
 9.1698    0
 9.1748    2
 9.1798    1
 9.1848    1
 9.1898    1
 9.1948    2
 9.1998    1
 9.2048    2
 9.2098    1
 9.2148    0
 9.2198    0
 9.2248    2
 9.2298    1
 9.2348    2
 9.2398    3
 9.2448    0
 9.2498    1
 9.2548    2
 9.2598    0
 9.2648    1
 9.2698    4
 9.2748    0
 9.2798    2
 9.2848    0
 9.2898    1
 9.2948    0
 9.2998    2
 9.3048    0
 9.3098    2
 9.3148    2
 9.3198    0
 9.3248    0
 9.3298    0
 9.3348    2
 9.3398    1
 9.3448    0
 9.3498    0
 9.3548    1
 9.3598    2
 9.3648    1
 9.3698    3
 9.3748    1
 9.3798    2
 9.3848    0
 9.3898    1
 9.3948    0
 9.3998    2
 9.4048    1
 9.4098    0
 9.4148    2
 9.4198    1
 9.4248    0
 9.4298    3
 9.4348    2
 9.4398    4
 9.4448    2
 9.4498    1
 9.4548    0
 9.4598    2
 9.4648    1
 9.4698    1
 9.4748    0
 9.4798    0
 9.4848    1
 9.4898    1
 9.4948    2
 9.4997    2
 9.5047    0
 9.5097    1
 9.5147    1
 9.5197    1
 9.5247    2
 9.5297    0
 9.5347    0
 9.5397    1
 9.5447    0
 9.5497    2
 9.5547    0
 9.5597    0
 9.5647    1
 9.5697    1
 9.5747    1
 9.5797    1
 9.5847    1
 9.5897    0
 9.5947    0
 9.5997    1
 9.6047    1
 9.6097    1
 9.6147    0
 9.6197    0
 9.6247    0
 9.6297    0
 9.6347    1
 9.6397    1
 9.6447    1
 9.6497    1
 9.6547    0
 9.6597    0
 9.6647    0
 9.6697    0
 9.6747    0
 9.6797    0
 9.6847    0
 9.6897    0
 9.6947    0
 9.6997    0
 9.7047    0
 9.7097    0
 9.7147    0
 9.7197    0
 9.7247    0
 9.7297    0
 9.7347    0
 9.7397    0
 9.7447    0
 9.7497    1
 9.7547    0
 9.7597    0
 9.7647    0
 9.7697    0
 9.7747    0
 9.7797    0
 9.7847    0
 9.7897    0
 9.7947    0
 9.7997    1
 9.8047    0
 9.8097    0
 9.8147    0
 9.8197    0
 9.8247    0
 9.8297    0
 9.8346    0
 9.8396    0
 9.8446    0
 9.8496    0
 9.8546    0
 9.8596    0
 9.8646    0
 9.8696    0
 9.8746    0
 9.8796    0
 9.8846    0
 9.8896    0
 9.8946    0
 9.8996    0
 9.9046    0
 9.9096    0
 9.9146    0
 9.9196    0
 9.9246    0
 9.9296    0
 9.9346    0
 9.9396    0
 9.9446    0
 9.9496    0
 9.9546    0
 9.9596    0
 9.9646    0
 9.9696    0
 9.9746    0
 9.9796    0
 9.9846    0
 9.9896    0
 9.9946    0
 9.9996    0
10.0046    0
10.0096    0
10.0146    0
10.0196    0
10.0246    0
10.0296    0
10.0346    0
10.0396    0
10.0446    0
10.0496    0
10.0546    0
10.0596    0
10.0646    0
10.0696    0
10.0746    0
10.0796    0
10.0846    0
10.0896    0
10.0946    0
10.0996    0
10.1046    0
10.1096    0
10.1146    0
10.1196    0
10.1246    0
10.1296    0
10.1346    0
10.1396    0
10.1446    0
10.1496    0
10.1546    0
10.1596    0
10.1645    0
10.1695    0
10.1745    0
